%  FabNS Header Version:	0.1
%  Export Date:	Wed Nov 13 2024
%  Shape:	1600 
%  Shape Units:	Wavelength [nm] 
%  Data Unit:	units
519.018 1508
519.095 1499
519.172 1496
519.249 1510
519.326 1512
519.403 1506
519.479 1495
519.556 1490
519.633 1504
519.71 1512
519.787 1498
519.863 1501
519.94 1508
520.017 1526
520.094 1493
520.171 1499
520.247 1504
520.324 1510
520.401 1517
520.478 1516
520.555 1514
520.632 1502
520.708 1499
520.785 1512
520.862 1501
520.939 1498
521.016 1504
521.092 1503
521.169 1504
521.246 1498
521.323 1512
521.4 1515
521.476 1516
521.553 1512
521.63 1510
521.707 1506
521.784 1514
521.86 1498
521.937 1503
522.014 1509
522.091 1498
522.167 1491
522.244 1500
522.321 1506
522.398 1500
522.475 1503
522.551 1522
522.628 1502
522.705 1498
522.782 1511
522.858 1507
522.935 1504
523.012 1512
523.089 1501
523.166 1511
523.242 1510
523.319 1503
523.396 1502
523.473 1502
523.549 1514
523.626 1511
523.703 1504
523.78 1509
523.857 1504
523.933 1516
524.01 1502
524.087 1505
524.164 1500
524.24 1493
524.317 1504
524.394 1494
524.47 1504
524.547 1497
524.624 1506
524.701 1495
524.777 1503
524.854 1501
524.931 1507
525.008 1501
525.084 1511
525.161 1493
525.238 1493
525.315 1500
525.391 1504
525.468 1498
525.545 1501
525.622 1499
525.698 1508
525.775 1498
525.852 1497
525.929 1525
526.005 1508
526.082 1495
526.159 1527
526.235 1498
526.312 1513
526.389 1504
526.466 1504
526.542 1508
526.619 1505
526.696 1489
526.773 1508
526.849 1494
526.926 1497
527.003 1500
527.079 1502
527.156 1511
527.233 1496
527.31 1525
527.386 1495
527.463 1494
527.54 1502
527.616 1506
527.693 1507
527.77 1500
527.846 1512
527.923 1493
528 1506
528.077 1503
528.153 1509
528.23 1516
528.307 1512
528.383 1513
528.46 1503
528.537 1495
528.613 1508
528.69 1511
528.767 1525
528.844 1505
528.92 1505
528.997 1506
529.074 1498
529.15 1511
529.227 1497
529.304 1508
529.38 1523
529.457 1506
529.534 1505
529.61 1515
529.687 1510
529.764 1503
529.84 1504
529.917 1496
529.994 1504
530.07 1508
530.147 1522
530.224 1509
530.3 1502
530.377 1504
530.454 1509
530.53 1523
530.607 1502
530.684 1501
530.76 1498
530.837 1495
530.914 1516
530.99 1516
531.067 1516
531.144 1500
531.22 1489
531.297 1515
531.374 1483
531.45 1508
531.527 1508
531.604 1521
531.68 1518
531.757 1514
531.833 1519
531.91 1497
531.987 1510
532.063 1509
532.14 1509
532.217 1493
532.293 1501
532.37 1508
532.447 1507
532.523 1521
532.6 1502
532.677 1509
532.753 1493
532.83 1508
532.906 1511
532.983 1513
533.06 1500
533.136 1512
533.213 1505
533.29 1497
533.366 1518
533.443 1492
533.519 1487
533.596 1509
533.673 1509
533.749 1509
533.826 1513
533.903 1489
533.979 1489
534.056 1508
534.132 1508
534.209 1489
534.286 1509
534.362 1497
534.439 1503
534.515 1505
534.592 1521
534.669 1494
534.745 1496
534.822 1503
534.898 1498
534.975 1498
535.052 1503
535.128 1503
535.205 1511
535.281 1510
535.358 1497
535.435 1506
535.511 1510
535.588 1506
535.664 1517
535.741 1495
535.817 1516
535.894 1503
535.971 1514
536.047 1505
536.124 1513
536.2 1514
536.277 1514
536.354 1505
536.43 1514
536.507 1519
536.583 1500
536.66 1505
536.736 1497
536.813 1495
536.89 1511
536.966 1509
537.043 1510
537.119 1523
537.196 1497
537.272 1503
537.349 1513
537.425 1501
537.502 1516
537.579 1492
537.655 1491
537.732 1499
537.808 1511
537.885 1506
537.961 1501
538.038 1501
538.114 1503
538.191 1508
538.268 1512
538.344 1505
538.421 1516
538.497 1501
538.574 1510
538.65 1511
538.727 1496
538.803 1502
538.88 1501
538.956 1524
539.033 1501
539.109 1510
539.186 1501
539.263 1510
539.339 1502
539.416 1501
539.492 1502
539.569 1504
539.645 1507
539.722 1497
539.798 1523
539.875 1496
539.951 1512
540.028 1502
540.104 1510
540.181 1531
540.257 1504
540.334 1528
540.41 1531
540.487 1549
540.563 1565
540.64 1561
540.716 1552
540.793 1568
540.869 1572
540.946 1551
541.022 1534
541.099 1526
541.175 1509
541.252 1506
541.328 1511
541.405 1506
541.481 1517
541.558 1520
541.634 1513
541.711 1524
541.787 1526
541.864 1526
541.94 1514
542.017 1516
542.093 1524
542.17 1523
542.246 1528
542.323 1526
542.399 1506
542.476 1516
542.552 1530
542.629 1528
542.705 1508
542.782 1524
542.858 1521
542.935 1503
543.011 1519
543.088 1536
543.164 1540
543.24 1528
543.317 1523
543.393 1512
543.47 1529
543.546 1521
543.623 1507
543.699 1511
543.776 1515
543.852 1514
543.929 1512
544.005 1526
544.082 1535
544.158 1508
544.234 1528
544.311 1521
544.387 1510
544.464 1536
544.54 1513
544.617 1524
544.693 1520
544.77 1521
544.846 1518
544.922 1511
544.999 1511
545.075 1522
545.152 1517
545.228 1534
545.305 1510
545.381 1511
545.458 1514
545.534 1518
545.61 1534
545.687 1516
545.763 1521
545.84 1512
545.916 1519
545.992 1538
546.069 1516
546.145 1509
546.222 1525
546.298 1535
546.375 1553
546.451 1549
546.527 1554
546.604 1544
546.68 1541
546.757 1541
546.833 1542
546.909 1542
546.986 1554
547.062 1533
547.139 1515
547.215 1526
547.292 1523
547.368 1508
547.444 1530
547.521 1506
547.597 1525
547.674 1511
547.75 1514
547.826 1507
547.903 1515
547.979 1509
548.055 1523
548.132 1509
548.208 1535
548.285 1514
548.361 1519
548.437 1515
548.514 1498
548.59 1515
548.667 1521
548.743 1523
548.819 1509
548.896 1510
548.972 1525
549.048 1525
549.125 1509
549.201 1509
549.277 1506
549.354 1503
549.43 1515
549.507 1501
549.583 1500
549.659 1510
549.736 1513
549.812 1518
549.888 1519
549.965 1509
550.041 1515
550.117 1516
550.194 1521
550.27 1512
550.346 1510
550.423 1508
550.499 1524
550.576 1508
550.652 1516
550.728 1511
550.805 1513
550.881 1504
550.957 1503
551.034 1501
551.11 1508
551.186 1505
551.263 1498
551.339 1508
551.415 1505
551.492 1510
551.568 1517
551.644 1504
551.721 1515
551.797 1519
551.873 1492
551.95 1505
552.026 1503
552.102 1499
552.179 1502
552.255 1508
552.331 1517
552.408 1513
552.484 1501
552.56 1500
552.636 1502
552.713 1511
552.789 1505
552.865 1512
552.942 1507
553.018 1498
553.094 1496
553.171 1498
553.247 1497
553.323 1508
553.399 1485
553.476 1501
553.552 1505
553.628 1498
553.705 1497
553.781 1522
553.857 1510
553.934 1506
554.01 1515
554.086 1512
554.162 1504
554.239 1516
554.315 1518
554.391 1501
554.468 1503
554.544 1494
554.62 1502
554.696 1513
554.773 1506
554.849 1486
554.925 1520
555.002 1492
555.078 1498
555.154 1509
555.23 1511
555.307 1501
555.383 1519
555.459 1501
555.535 1500
555.612 1510
555.688 1503
555.764 1513
555.84 1514
555.917 1509
555.993 1511
556.069 1512
556.145 1503
556.222 1509
556.298 1506
556.374 1508
556.45 1510
556.527 1483
556.603 1513
556.679 1514
556.755 1506
556.832 1498
556.908 1505
556.984 1508
557.06 1503
557.137 1500
557.213 1517
557.289 1525
557.365 1502
557.441 1513
557.518 1516
557.594 1504
557.67 1502
557.746 1519
557.823 1491
557.899 1503
557.975 1506
558.051 1490
558.128 1500
558.204 1499
558.28 1497
558.356 1511
558.432 1512
558.509 1513
558.585 1500
558.661 1506
558.737 1500
558.813 1516
558.89 1509
558.966 1507
559.042 1506
559.118 1500
559.194 1511
559.271 1500
559.347 1501
559.423 1510
559.499 1501
559.575 1504
559.652 1491
559.728 1496
559.804 1497
559.88 1513
559.956 1512
560.033 1490
560.109 1511
560.185 1511
560.261 1506
560.337 1531
560.413 1494
560.49 1491
560.566 1498
560.642 1510
560.718 1477
560.794 1516
560.87 1500
560.947 1505
561.023 1503
561.099 1507
561.175 1508
561.251 1518
561.327 1510
561.404 1502
561.48 1517
561.556 1498
561.632 1518
561.708 1498
561.784 1494
561.861 1508
561.937 1514
562.013 1509
562.089 1492
562.165 1504
562.241 1509
562.317 1502
562.394 1499
562.47 1508
562.546 1508
562.622 1495
562.698 1514
562.774 1517
562.85 1510
562.927 1498
563.003 1532
563.079 1510
563.155 1512
563.231 1517
563.307 1495
563.383 1504
563.459 1517
563.536 1511
563.612 1525
563.688 1503
563.764 1506
563.84 1513
563.916 1497
563.992 1495
564.068 1501
564.144 1496
564.221 1497
564.297 1507
564.373 1506
564.449 1525
564.525 1490
564.601 1507
564.677 1520
564.753 1491
564.829 1511
564.905 1507
564.982 1503
565.058 1494
565.134 1505
565.21 1503
565.286 1514
565.362 1509
565.438 1518
565.514 1505
565.59 1513
565.666 1499
565.742 1499
565.818 1514
565.895 1504
565.971 1509
566.047 1495
566.123 1500
566.199 1501
566.275 1506
566.351 1499
566.427 1503
566.503 1513
566.579 1493
566.655 1511
566.731 1516
566.807 1493
566.883 1504
566.96 1493
567.036 1501
567.112 1522
567.188 1505
567.264 1515
567.34 1499
567.416 1507
567.492 1508
567.568 1501
567.644 1500
567.72 1512
567.796 1505
567.872 1501
567.948 1503
568.024 1503
568.1 1511
568.176 1507
568.252 1505
568.328 1505
568.404 1495
568.48 1496
568.557 1520
568.633 1489
568.709 1497
568.785 1514
568.861 1493
568.937 1500
569.013 1495
569.089 1514
569.165 1518
569.241 1510
569.317 1512
569.393 1506
569.469 1500
569.545 1492
569.621 1494
569.697 1508
569.773 1507
569.849 1516
569.925 1513
570.001 1517
570.077 1508
570.153 1515
570.229 1508
570.305 1513
570.381 1509
570.457 1521
570.533 1522
570.609 1515
570.685 1519
570.761 1507
570.837 1504
570.913 1516
570.989 1498
571.065 1494
571.141 1502
571.217 1517
571.293 1523
571.369 1506
571.445 1513
571.521 1510
571.596 1502
571.672 1507
571.748 1505
571.824 1500
571.9 1510
571.976 1520
572.052 1512
572.128 1501
572.204 1508
572.28 1517
572.356 1497
572.432 1503
572.508 1501
572.584 1501
572.66 1501
572.736 1486
572.812 1506
572.888 1502
572.964 1504
573.04 1503
573.116 1500
573.192 1512
573.268 1487
573.344 1493
573.419 1512
573.495 1504
573.571 1497
573.647 1504
573.723 1503
573.799 1497
573.875 1499
573.951 1499
574.027 1497
574.103 1510
574.179 1495
574.255 1503
574.331 1503
574.407 1508
574.482 1515
574.558 1508
574.634 1502
574.71 1499
574.786 1507
574.862 1506
574.938 1496
575.014 1504
575.09 1504
575.166 1495
575.241 1507
575.317 1508
575.393 1523
575.469 1512
575.545 1511
575.621 1517
575.697 1512
575.773 1506
575.849 1517
575.925 1515
576 1510
576.076 1514
576.152 1505
576.228 1503
576.304 1501
576.38 1511
576.456 1514
576.532 1512
576.608 1514
576.683 1520
576.759 1513
576.835 1525
576.911 1523
576.987 1532
577.063 1518
577.139 1517
577.214 1516
577.29 1533
577.366 1537
577.442 1523
577.518 1499
577.594 1523
577.67 1511
577.745 1516
577.821 1494
577.897 1515
577.973 1522
578.049 1537
578.125 1500
578.201 1510
578.276 1504
578.352 1502
578.428 1520
578.504 1537
578.58 1501
578.656 1502
578.732 1498
578.807 1503
578.883 1517
578.959 1513
579.035 1499
579.111 1499
579.186 1506
579.262 1520
579.338 1517
579.414 1508
579.49 1505
579.566 1512
579.641 1513
579.717 1505
579.793 1526
579.869 1521
579.945 1506
580.021 1520
580.096 1525
580.172 1514
580.248 1520
580.324 1496
580.399 1500
580.475 1516
580.551 1517
580.627 1510
580.703 1513
580.779 1520
580.854 1522
580.93 1517
581.006 1506
581.082 1500
581.157 1507
581.233 1527
581.309 1517
581.385 1511
581.461 1507
581.536 1506
581.612 1518
581.688 1520
581.764 1504
581.839 1512
581.915 1502
581.991 1504
582.067 1510
582.143 1516
582.218 1517
582.294 1505
582.37 1515
582.446 1507
582.521 1521
582.597 1516
582.673 1526
582.749 1513
582.824 1513
582.9 1522
582.976 1519
583.052 1504
583.127 1522
583.203 1496
583.279 1500
583.355 1511
583.43 1511
583.506 1516
583.582 1507
583.658 1509
583.733 1509
583.809 1506
583.885 1504
583.961 1529
584.036 1522
584.112 1511
584.188 1518
584.263 1522
584.339 1513
584.415 1516
584.491 1512
584.566 1503
584.642 1515
584.718 1506
584.794 1507
584.869 1495
584.945 1525
585.021 1494
585.096 1504
585.172 1518
585.248 1523
585.324 1519
585.399 1531
585.475 1558
585.551 1905
585.626 2949
585.702 3834
585.778 4656
585.853 5265
585.929 5016
586.005 4591
586.08 4271
586.156 3609
586.232 2895
586.307 2524
586.383 2358
586.459 2103
586.535 1863
586.61 1743
586.686 1665
586.762 1629
586.837 1582
586.913 1603
586.989 1621
587.064 1596
587.14 1641
587.216 1638
587.291 1634
587.367 1602
587.443 1572
587.518 1543
587.594 1533
587.67 1526
587.745 1520
587.821 1512
587.897 1508
587.972 1513
588.048 1524
588.123 1521
588.199 1509
588.275 1525
588.35 1511
588.426 1530
588.502 1545
588.577 1632
588.653 1712
588.729 1757
588.804 1817
588.88 1768
588.956 1722
589.031 1705
589.107 1636
589.182 1617
589.258 1571
589.334 1567
589.409 1551
589.485 1538
589.56 1524
589.636 1534
589.712 1521
589.787 1523
589.863 1511
589.939 1524
590.014 1510
590.09 1518
590.165 1516
590.241 1517
590.317 1508
590.392 1503
590.468 1518
590.543 1507
590.619 1508
590.695 1527
590.77 1503
590.846 1518
590.921 1511
590.997 1501
591.073 1516
591.148 1526
591.224 1508
591.299 1521
591.375 1518
591.45 1511
591.526 1506
591.602 1512
591.677 1525
591.753 1499
591.828 1515
591.904 1502
591.979 1505
592.055 1527
592.131 1498
592.206 1514
592.282 1507
592.357 1514
592.433 1516
592.508 1500
592.584 1520
592.659 1519
592.735 1517
592.811 1520
592.886 1504
592.962 1505
593.037 1503
593.113 1510
593.188 1513
593.264 1524
593.339 1496
593.415 1503
593.49 1510
593.566 1506
593.642 1513
593.717 1510
593.793 1517
593.868 1522
593.944 1503
594.019 1493
594.095 1510
594.17 1493
594.246 1513
594.321 1507
594.397 1508
594.472 1510
594.548 1509
594.623 1502
594.699 1539
594.774 1552
594.85 1719
594.925 1847
595.001 1951
595.076 2031
595.152 1947
595.227 1892
595.303 1857
595.378 1770
595.454 1678
595.529 1641
595.605 1613
595.68 1587
595.756 1557
595.831 1524
595.907 1529
595.982 1526
596.058 1511
596.133 1511
596.209 1524
596.284 1512
596.36 1537
596.435 1512
596.511 1516
596.586 1510
596.662 1527
596.737 1506
596.812 1520
596.888 1502
596.963 1498
597.039 1502
597.114 1511
597.19 1505
597.265 1506
597.341 1504
597.416 1503
597.492 1504
597.567 1509
597.643 1501
597.718 1514
597.793 1502
597.869 1533
597.944 1565
598.02 1596
598.095 1609
598.171 1603
598.246 1605
598.321 1582
598.397 1582
598.472 1553
598.548 1543
598.623 1551
598.699 1533
598.774 1533
598.849 1518
598.925 1521
599 1526
599.076 1505
599.151 1510
599.227 1502
599.302 1504
599.377 1529
599.453 1520
599.528 1521
599.604 1519
599.679 1511
599.754 1508
599.83 1520
599.905 1519
599.981 1503
600.056 1506
600.131 1515
600.207 1503
600.282 1514
600.358 1515
600.433 1512
600.508 1514
600.584 1524
600.659 1491
600.734 1506
600.81 1512
600.885 1501
600.961 1517
601.036 1515
601.111 1498
601.187 1501
601.262 1527
601.337 1489
601.413 1503
601.488 1513
601.564 1511
601.639 1514
601.714 1496
601.79 1519
601.865 1497
601.94 1518
602.016 1510
602.091 1498
602.166 1507
602.242 1519
602.317 1514
602.392 1503
602.468 1507
602.543 1516
602.618 1498
602.694 1505
602.769 1513
602.844 1504
602.92 1517
602.995 1489
603.07 1512
603.146 1517
603.221 1501
603.296 1523
603.372 1583
603.447 1605
603.522 1618
603.598 1631
603.673 1600
603.748 1603
603.824 1594
603.899 1571
603.974 1548
604.05 1539
604.125 1534
604.2 1529
604.276 1525
604.351 1510
604.426 1512
604.501 1518
604.577 1502
604.652 1517
604.727 1523
604.803 1505
604.878 1513
604.953 1522
605.029 1521
605.104 1516
605.179 1498
605.254 1513
605.33 1503
605.405 1497
605.48 1505
605.555 1524
605.631 1493
605.706 1509
605.781 1513
605.857 1518
605.932 1501
606.007 1521
606.082 1509
606.158 1499
606.233 1498
606.308 1515
606.383 1499
606.459 1498
606.534 1511
606.609 1501
606.684 1522
606.76 1509
606.835 1509
606.91 1510
606.985 1495
607.061 1513
607.136 1504
607.211 1522
607.286 1507
607.362 1503
607.437 1495
607.512 1513
607.587 1503
607.662 1511
607.738 1629
607.813 1749
607.888 1861
607.963 1918
608.039 1902
608.114 1855
608.189 1799
608.264 1739
608.339 1653
608.415 1645
608.49 1587
608.565 1589
608.64 1562
608.716 1557
608.791 1533
608.866 1527
608.941 1526
609.016 1518
609.092 1516
609.167 1522
609.242 1519
609.317 1535
609.392 1518
609.467 1531
609.543 1508
609.618 1525
609.693 1504
609.768 1511
609.843 1535
609.919 1743
609.994 1992
610.069 2133
610.144 2277
610.219 2242
610.294 2105
610.37 2028
610.445 1879
610.52 1777
610.595 1712
610.67 1690
610.745 1630
610.82 1596
610.896 1556
610.971 1557
611.046 1548
611.121 1540
611.196 1526
611.271 1541
611.347 1538
611.422 1550
611.497 1548
611.572 1554
611.647 1551
611.722 1549
611.797 1541
611.872 1555
611.948 1545
612.023 1532
612.098 1537
612.173 1531
612.248 1530
612.323 1531
612.398 1521
612.474 1520
612.549 1532
612.624 1542
612.699 1518
612.774 1526
612.849 1522
612.924 1501
612.999 1513
613.074 1525
613.15 1534
613.225 1544
613.3 1527
613.375 1539
613.45 1539
613.525 1533
613.6 1537
613.675 1531
613.75 1515
613.825 1522
613.901 1518
613.976 1524
614.051 1517
614.126 1525
614.201 1517
614.276 1523
614.351 1512
614.426 1521
614.501 1544
614.576 1767
614.651 2217
614.726 2483
614.801 2729
614.876 2692
614.951 2480
615.026 2354
615.102 2151
615.177 1945
615.252 1838
615.327 1808
615.402 1706
615.477 1640
615.552 1609
615.627 1572
615.702 1568
615.777 1550
615.852 1540
615.927 1536
616.002 1540
616.077 1546
616.152 1543
616.227 1547
616.302 1532
616.377 1528
616.452 1526
616.527 1531
616.602 1557
616.677 1670
616.753 1756
616.827 1854
616.902 1812
616.978 1759
617.052 1742
617.128 1696
617.203 1626
617.278 1590
617.353 1584
617.427 1570
617.503 1564
617.578 1512
617.653 1522
617.728 1527
617.802 1523
617.878 1527
617.953 1512
618.027 1517
618.102 1506
618.177 1515
618.253 1517
618.327 1514
618.402 1503
618.477 1502
618.552 1515
618.627 1526
618.702 1496
618.777 1510
618.852 1506
618.927 1505
619.002 1517
619.077 1506
619.152 1496
619.227 1515
619.302 1500
619.377 1506
619.452 1523
619.527 1512
619.602 1496
619.677 1518
619.752 1515
619.827 1515
619.902 1499
619.977 1515
620.052 1513
620.127 1512
620.201 1496
620.276 1523
620.351 1500
620.426 1495
620.501 1509
620.576 1514
620.651 1513
620.726 1518
620.801 1508
620.876 1500
620.951 1514
621.026 1505
621.1 1499
621.175 1499
621.25 1518
621.325 1509
621.4 1516
621.475 1511
621.55 1509
621.625 1518
621.7 1515
621.775 1499
621.85 1515
621.924 1536
621.999 1602
622.074 1655
622.149 1704
622.224 1703
622.299 1686
622.374 1649
622.449 1627
622.524 1586
622.598 1568
622.673 1556
622.748 1560
622.823 1533
622.898 1527
622.973 1524
623.048 1523
623.123 1527
623.198 1525
623.272 1506
623.347 1512
623.422 1509
623.497 1507
623.572 1517
623.647 1521
623.721 1518
623.796 1506
623.871 1518
623.946 1510
624.021 1507
624.096 1510
624.171 1502
624.245 1485
624.32 1521
624.395 1514
624.47 1511
624.545 1522
624.62 1497
624.694 1511
624.769 1525
624.844 1503
624.919 1509
624.994 1499
625.069 1508
625.143 1507
625.218 1519
625.293 1504
625.368 1499
625.443 1502
625.517 1514
625.592 1500
625.667 1504
625.742 1503
625.817 1503
625.891 1506
625.966 1495
626.041 1511
626.116 1517
626.191 1506
626.266 1509
626.34 1516
626.415 1486
626.49 1510
626.565 1501
626.639 1497
626.714 1498
626.789 1531
626.864 1672
626.938 1953
627.013 2108
627.088 2197
627.163 2141
627.238 2032
627.312 1913
627.387 1826
627.462 1736
627.537 1674
627.611 1657
627.686 1608
627.761 1594
627.836 1563
627.91 1549
627.985 1543
628.06 1529
628.135 1521
628.209 1522
628.284 1532
628.359 1521
628.434 1533
628.508 1530
628.583 1517
628.658 1521
628.733 1528
628.807 1506
628.882 1507
628.957 1520
629.031 1510
629.106 1492
629.181 1514
629.256 1504
629.33 1492
629.405 1513
629.48 1499
629.555 1519
629.629 1506
629.704 1505
629.779 1505
629.853 1498
629.928 1520
630.003 1504
630.077 1504
630.152 1498
630.227 1511
630.301 1501
630.376 1513
630.451 1507
630.526 1500
630.6 1516
630.675 1560
630.75 1629
630.824 1661
630.899 1688
630.974 1642
631.048 1645
631.123 1596
631.198 1580
631.272 1557
631.347 1542
631.422 1556
631.496 1541
631.571 1530
631.646 1535
631.72 1537
631.795 1511
631.87 1513
631.944 1535
632.019 1518
632.094 1499
632.168 1532
632.243 1521
632.317 1495
632.392 1509
632.467 1508
632.541 1522
632.616 1499
632.691 1500
632.765 1514
632.84 1504
632.915 1519
632.989 1516
633.064 1499
633.138 1510
633.213 1509
633.288 1503
633.362 1503
633.437 1508
633.511 1516
633.586 1552
633.661 1749
633.735 1861
633.81 1959
633.885 1929
633.959 1847
634.034 1796
634.108 1742
634.183 1660
634.258 1627
634.332 1613
634.407 1586
634.481 1548
634.556 1551
634.63 1534
634.705 1511
634.78 1522
634.854 1500
634.929 1513
635.003 1521
635.078 1522
635.152 1526
635.227 1527
635.302 1535
635.376 1521
635.451 1522
635.525 1506
635.6 1504
635.674 1507
635.749 1495
635.824 1509
635.898 1511
635.973 1496
636.047 1497
636.122 1496
636.196 1508
636.271 1506
636.345 1507
636.42 1508
636.494 1512
636.569 1505
636.643 1503
636.718 1519
636.793 1513
636.867 1507
636.942 1517
637.016 1511
637.091 1504
637.165 1503
637.24 1503
637.314 1499
637.389 1505
637.463 1508
637.538 1512
637.612 1493
637.687 1496
637.761 1521
637.836 1509
637.91 1514
637.985 1516
638.059 1505
638.134 1499
638.208 1501
638.283 1513
638.357 1540
638.432 1744
638.506 2146
638.581 2383
638.655 2457
638.73 2332
638.804 2161
638.879 2060
638.953 1867
639.028 1768
639.102 1721
639.176 1685
639.251 1645
639.325 1591
639.4 1572
639.474 1573
639.549 1552
639.623 1553
639.698 1539
639.772 1532
639.847 1525
639.921 1552
639.996 1534
640.07 1512
640.144 1544
